Article Size (bytes)	% Articles	Running Sum	Counts
5.000	0.067	114	114
10.000	0.069	116	2
15.000	0.070	118	2
125.000	0.070	119	1
195.000	0.071	120	1
200.000	0.073	123	3
205.000	0.073	124	1
210.000	0.074	126	2
235.000	0.076	128	2
245.000	0.076	129	1
250.000	0.078	132	3
255.000	0.079	133	1
260.000	0.083	140	7
265.000	0.083	141	1
285.000	0.084	142	1
290.000	0.086	145	3
295.000	0.088	149	4
300.000	0.089	151	2
305.000	0.090	153	2
315.000	0.092	156	3
320.000	0.093	157	1
325.000	0.093	158	1
330.000	0.094	159	1
335.000	0.096	162	3
340.000	0.098	166	4
345.000	0.101	171	5
350.000	0.102	173	2
360.000	0.105	177	4
365.000	0.106	180	3
370.000	0.115	194	14
375.000	0.119	201	7
380.000	0.123	208	7
385.000	0.129	218	10
390.000	0.130	220	2
395.000	0.135	228	8
400.000	0.138	234	6
405.000	0.141	239	5
410.000	0.148	251	12
415.000	0.158	268	17
420.000	0.167	282	14
425.000	0.177	300	18
430.000	0.183	309	9
435.000	0.184	311	2
440.000	0.188	318	7
445.000	0.193	327	9
450.000	0.199	336	9
455.000	0.203	344	8
460.000	0.208	352	8
465.000	0.209	353	1
470.000	0.212	359	6
475.000	0.217	367	8
480.000	0.217	368	1
485.000	0.219	370	2
495.000	0.221	374	4
500.000	0.223	377	3
505.000	0.224	379	2
515.000	0.226	382	3
520.000	0.229	387	5
525.000	0.230	390	3
530.000	0.232	393	3
535.000	0.233	395	2
540.000	0.234	396	1
550.000	0.235	398	2
555.000	0.237	401	3
560.000	0.238	403	2
565.000	0.241	408	5
570.000	0.242	410	2
575.000	0.244	413	3
585.000	0.245	414	1
595.000	0.246	416	2
605.000	0.246	417	1
610.000	0.248	420	3
615.000	0.251	425	5
620.000	0.252	427	2
625.000	0.254	430	3
630.000	0.258	437	7
635.000	0.260	440	3
645.000	0.261	441	1
650.000	0.261	442	1
655.000	0.262	443	1
665.000	0.264	446	3
670.000	0.268	453	7
675.000	0.269	455	2
680.000	0.271	459	4
685.000	0.274	463	4
690.000	0.277	468	5
695.000	0.277	469	1
700.000	0.278	471	2
705.000	0.279	472	1
710.000	0.281	475	3
715.000	0.284	480	5
720.000	0.290	491	11
725.000	0.291	493	2
730.000	0.293	496	3
735.000	0.296	500	4
740.000	0.296	501	1
745.000	0.297	503	2
750.000	0.299	506	3
755.000	0.300	508	2
760.000	0.303	512	4
765.000	0.304	514	2
770.000	0.304	515	1
775.000	0.306	518	3
780.000	0.307	520	2
785.000	0.308	521	1
795.000	0.309	522	1
800.000	0.310	524	2
805.000	0.310	525	1
810.000	0.311	526	1
815.000	0.311	527	1
820.000	0.313	529	2
825.000	0.313	530	1
830.000	0.316	534	4
835.000	0.317	536	2
845.000	0.317	537	1
850.000	0.318	538	1
855.000	0.319	540	2
860.000	0.320	541	1
865.000	0.320	542	1
870.000	0.322	544	2
875.000	0.322	545	1
885.000	0.323	546	1
895.000	0.325	550	4
900.000	0.326	552	2
905.000	0.328	555	3
910.000	0.330	558	3
915.000	0.333	563	5
920.000	0.333	564	1
925.000	0.334	565	1
930.000	0.335	566	1
945.000	0.335	567	1
955.000	0.336	568	1
960.000	0.337	570	2
965.000	0.340	575	5
970.000	0.346	585	10
985.000	0.346	586	1
990.000	0.347	587	1
1000.000	0.348	588	1
1005.000	0.348	589	1
1010.000	0.349	591	2
1015.000	0.350	592	1
1020.000	0.350	593	1
1025.000	0.351	594	1
1035.000	0.352	595	1
1040.000	0.353	597	2
1045.000	0.353	598	1
1050.000	0.354	599	1
1065.000	0.355	600	1
1070.000	0.355	601	1
1075.000	0.356	602	1
1080.000	0.356	603	1
1110.000	0.358	605	2
1120.000	0.358	606	1
1130.000	0.359	607	1
1140.000	0.359	608	1
1150.000	0.360	609	1
1155.000	0.361	610	1
1165.000	0.362	612	2
1170.000	0.363	614	2
1190.000	0.365	617	3
1205.000	0.365	618	1
1210.000	0.366	619	1
1215.000	0.366	620	1
1220.000	0.367	621	1
1230.000	0.368	622	1
1240.000	0.369	624	2
1245.000	0.371	627	3
1250.000	0.372	629	2
1255.000	0.373	631	2
1260.000	0.374	632	1
1270.000	0.374	633	1
1275.000	0.375	634	1
1280.000	0.375	635	1
1285.000	0.376	637	2
1290.000	0.377	638	1
1300.000	0.378	639	1
1305.000	0.378	640	1
1320.000	0.379	642	2
1325.000	0.380	643	1
1335.000	0.381	644	1
1345.000	0.382	646	2
1370.000	0.382	647	1
1375.000	0.384	649	2
1390.000	0.385	651	2
1395.000	0.385	652	1
1400.000	0.386	653	1
1420.000	0.387	654	1
1425.000	0.388	656	2
1430.000	0.389	658	2
1435.000	0.389	659	1
1455.000	0.390	660	1
1465.000	0.391	661	1
1470.000	0.391	662	1
1475.000	0.392	663	1
1480.000	0.392	664	1
1505.000	0.393	665	1
1540.000	0.394	666	1
1545.000	0.395	669	3
1555.000	0.397	671	2
1575.000	0.397	672	1
1590.000	0.398	673	1
1595.000	0.398	674	1
1605.000	0.399	675	1
1615.000	0.401	678	3
1630.000	0.401	679	1
1640.000	0.402	680	1
1645.000	0.404	683	3
1655.000	0.405	686	3
1660.000	0.407	688	2
1670.000	0.408	690	2
1680.000	0.410	693	3
1685.000	0.410	694	1
1690.000	0.411	696	2
1715.000	0.412	697	1
1720.000	0.413	698	1
1750.000	0.413	699	1
1755.000	0.414	700	1
1760.000	0.414	701	1
1770.000	0.415	702	1
1775.000	0.415	703	1
1780.000	0.416	704	1
1785.000	0.417	705	1
1790.000	0.418	707	2
1795.000	0.418	708	1
1800.000	0.419	709	1
1810.000	0.421	712	3
1835.000	0.422	714	2
1870.000	0.423	716	2
1880.000	0.424	718	2
1905.000	0.425	719	1
1915.000	0.427	722	3
1925.000	0.427	723	1
1935.000	0.428	725	2
1940.000	0.429	726	1
1945.000	0.431	729	3
1955.000	0.431	730	1
1970.000	0.433	732	2
1985.000	0.436	737	5
1990.000	0.436	738	1
2000.000	0.437	740	2
2040.000	0.438	741	1
2050.000	0.439	742	1
2065.000	0.439	743	1
2070.000	0.440	744	1
2080.000	0.440	745	1
2085.000	0.441	746	1
2090.000	0.442	748	2
2100.000	0.444	752	4
2105.000	0.445	753	1
2130.000	0.446	754	1
2140.000	0.446	755	1
2155.000	0.447	756	1
2170.000	0.448	758	2
2175.000	0.449	759	1
2180.000	0.449	760	1
2185.000	0.450	761	1
2205.000	0.450	762	1
2230.000	0.451	763	1
2245.000	0.452	765	2
2250.000	0.453	767	2
2270.000	0.454	769	2
2295.000	0.456	771	2
2300.000	0.456	772	1
2320.000	0.457	773	1
2325.000	0.457	774	1
2335.000	0.459	777	3
2340.000	0.460	779	2
2345.000	0.461	780	1
2355.000	0.462	782	2
2360.000	0.463	783	1
2370.000	0.463	784	1
2380.000	0.465	786	2
2385.000	0.465	787	1
2400.000	0.466	789	2
2415.000	0.467	790	1
2420.000	0.468	792	2
2425.000	0.469	793	1
2430.000	0.469	794	1
2435.000	0.470	795	1
2440.000	0.470	796	1
2450.000	0.471	797	1
2455.000	0.472	799	2
2460.000	0.473	801	2
2470.000	0.474	802	1
2475.000	0.475	803	1
2480.000	0.475	804	1
2485.000	0.476	805	1
2495.000	0.477	807	2
2500.000	0.478	808	1
2510.000	0.478	809	1
2530.000	0.479	810	1
2535.000	0.479	811	1
2545.000	0.480	812	1
2550.000	0.480	813	1
2565.000	0.482	815	2
2600.000	0.482	816	1
2625.000	0.483	817	1
2655.000	0.484	819	2
2660.000	0.485	820	1
2670.000	0.485	821	1
2685.000	0.486	822	1
2690.000	0.486	823	1
2705.000	0.487	824	1
2740.000	0.488	825	1
2745.000	0.488	826	1
2750.000	0.489	827	1
2760.000	0.489	828	1
2765.000	0.490	829	1
2770.000	0.491	831	2
2775.000	0.492	832	1
2780.000	0.493	835	3
2785.000	0.494	836	1
2835.000	0.495	837	1
2840.000	0.495	838	1
2850.000	0.496	839	1
2860.000	0.496	840	1
2870.000	0.497	841	1
2885.000	0.498	843	2
2900.000	0.499	844	1
2915.000	0.501	847	3
2935.000	0.502	849	2
2960.000	0.502	850	1
2965.000	0.503	851	1
2970.000	0.504	852	1
2990.000	0.504	853	1
3000.000	0.507	857	4
3025.000	0.508	859	2
3040.000	0.508	860	1
3050.000	0.509	861	1
3075.000	0.509	862	1
3085.000	0.510	863	1
3090.000	0.511	865	2
3100.000	0.512	867	2
3115.000	0.513	868	1
3130.000	0.514	869	1
3135.000	0.514	870	1
3160.000	0.515	871	1
3165.000	0.515	872	1
3175.000	0.517	874	2
3180.000	0.517	875	1
3185.000	0.518	877	2
3200.000	0.519	878	1
3215.000	0.520	879	1
3240.000	0.520	880	1
3245.000	0.521	881	1
3255.000	0.521	882	1
3260.000	0.522	883	1
3295.000	0.522	884	1
3310.000	0.523	885	1
3315.000	0.524	887	2
3320.000	0.525	888	1
3360.000	0.525	889	1
3375.000	0.526	890	1
3380.000	0.527	891	1
3415.000	0.528	893	2
3435.000	0.528	894	1
3580.000	0.529	895	1
3625.000	0.530	896	1
3640.000	0.530	897	1
3665.000	0.531	898	1
3685.000	0.531	899	1
3695.000	0.532	900	1
3715.000	0.533	901	1
3760.000	0.533	902	1
3775.000	0.534	903	1
3800.000	0.535	906	3
3820.000	0.536	907	1
3835.000	0.537	909	2
3845.000	0.538	910	1
3850.000	0.538	911	1
3855.000	0.539	912	1
3865.000	0.540	913	1
3875.000	0.540	914	1
3880.000	0.541	915	1
3900.000	0.541	916	1
3915.000	0.542	917	1
3920.000	0.543	918	1
3940.000	0.543	919	1
3965.000	0.544	920	1
3990.000	0.544	921	1
4025.000	0.545	922	1
4030.000	0.546	923	1
4045.000	0.546	924	1
4050.000	0.547	925	1
4055.000	0.547	926	1
4065.000	0.548	927	1
4070.000	0.548	928	1
4080.000	0.549	929	1
4105.000	0.550	931	2
4120.000	0.551	932	1
4140.000	0.551	933	1
4160.000	0.552	934	1
4180.000	0.553	935	1
4190.000	0.554	938	3
4210.000	0.555	939	1
4220.000	0.556	940	1
4245.000	0.556	941	1
4255.000	0.557	942	1
4260.000	0.557	943	1
4275.000	0.558	944	1
4280.000	0.559	945	1
4290.000	0.559	946	1
4305.000	0.560	947	1
4310.000	0.560	948	1
4320.000	0.561	949	1
4335.000	0.561	950	1
4345.000	0.562	951	1
4360.000	0.563	952	1
4370.000	0.563	953	1
4380.000	0.564	954	1
4390.000	0.564	955	1
4405.000	0.566	957	2
4410.000	0.566	958	1
4415.000	0.567	960	2
4420.000	0.568	961	1
4450.000	0.569	962	1
4455.000	0.569	963	1
4490.000	0.570	964	1
4500.000	0.570	965	1
4510.000	0.572	967	2
4525.000	0.572	968	1
4550.000	0.573	969	1
4560.000	0.574	971	2
4585.000	0.574	972	1
4590.000	0.575	973	1
4595.000	0.576	974	1
4600.000	0.576	975	1
4615.000	0.577	976	1
4620.000	0.577	977	1
4625.000	0.578	978	1
4640.000	0.579	979	1
4645.000	0.579	980	1
4650.000	0.580	981	1
4680.000	0.580	982	1
4695.000	0.581	983	1
4705.000	0.582	984	1
4720.000	0.582	985	1
4725.000	0.584	988	3
4730.000	0.585	989	1
4735.000	0.585	990	1
4770.000	0.586	991	1
4780.000	0.586	992	1
4800.000	0.587	993	1
4815.000	0.588	995	2
4830.000	0.590	999	4
4845.000	0.591	1000	1
4850.000	0.592	1002	2
4855.000	0.593	1003	1
4860.000	0.593	1004	1
4885.000	0.595	1006	2
4890.000	0.596	1008	2
4895.000	0.597	1010	2
4905.000	0.598	1011	1
4910.000	0.599	1013	2
4915.000	0.599	1014	1
4925.000	0.602	1018	4
4930.000	0.603	1020	2
4935.000	0.604	1022	2
4955.000	0.605	1024	2
4965.000	0.606	1025	1
4970.000	0.608	1029	4
4975.000	0.609	1031	2
4980.000	0.611	1033	2
4995.000	0.611	1034	1
5000.000	0.612	1035	1
5010.000	0.612	1036	1
5025.000	0.613	1037	1
5035.000	0.613	1038	1
5045.000	0.614	1039	1
5060.000	0.615	1041	2
5075.000	0.616	1042	1
5080.000	0.617	1044	2
5085.000	0.618	1046	2
5095.000	0.619	1047	1
5120.000	0.619	1048	1
5125.000	0.620	1049	1
5170.000	0.621	1051	2
5185.000	0.622	1052	1
5215.000	0.622	1053	1
5245.000	0.623	1054	1
5250.000	0.624	1055	1
5275.000	0.625	1057	2
5280.000	0.625	1058	1
5305.000	0.626	1059	1
5330.000	0.626	1060	1
5335.000	0.627	1061	1
5345.000	0.628	1062	1
5370.000	0.628	1063	1
5375.000	0.629	1064	1
5385.000	0.629	1065	1
5390.000	0.630	1066	1
5405.000	0.631	1067	1
5415.000	0.632	1069	2
5445.000	0.632	1070	1
5450.000	0.633	1071	1
5455.000	0.634	1073	2
5475.000	0.635	1074	1
5525.000	0.635	1075	1
5610.000	0.636	1076	1
5615.000	0.637	1077	1
5630.000	0.637	1078	1
5705.000	0.638	1080	2
5750.000	0.639	1081	1
5765.000	0.639	1082	1
5770.000	0.641	1084	2
5785.000	0.641	1085	1
5810.000	0.642	1086	1
5820.000	0.644	1089	3
5825.000	0.644	1090	1
5835.000	0.645	1092	2
5840.000	0.647	1094	2
5845.000	0.649	1098	4
5850.000	0.650	1099	1
5860.000	0.650	1100	1
5865.000	0.651	1101	1
5885.000	0.651	1102	1
5915.000	0.652	1103	1
5935.000	0.652	1104	1
5945.000	0.653	1105	1
6030.000	0.654	1106	1
6040.000	0.654	1107	1
6055.000	0.655	1108	1
6060.000	0.658	1114	6
6065.000	0.659	1115	1
6075.000	0.660	1116	1
6080.000	0.660	1117	1
6140.000	0.661	1118	1
6165.000	0.661	1119	1
6180.000	0.662	1120	1
6190.000	0.663	1121	1
6225.000	0.663	1122	1
6230.000	0.664	1123	1
6235.000	0.664	1124	1
6240.000	0.665	1126	2
6250.000	0.666	1127	1
6265.000	0.667	1128	1
6285.000	0.667	1129	1
6290.000	0.668	1130	1
6295.000	0.668	1131	1
6300.000	0.669	1132	1
6325.000	0.670	1133	1
6340.000	0.671	1135	2
6345.000	0.671	1136	1
6350.000	0.672	1137	1
6360.000	0.673	1138	1
6370.000	0.673	1139	1
6380.000	0.674	1140	1
6400.000	0.674	1141	1
6430.000	0.675	1142	1
6495.000	0.676	1143	1
6530.000	0.676	1144	1
6545.000	0.677	1145	1
6580.000	0.677	1146	1
6585.000	0.678	1147	1
6590.000	0.680	1151	4
6605.000	0.681	1152	1
6615.000	0.681	1153	1
6640.000	0.682	1154	1
6645.000	0.683	1155	1
6700.000	0.683	1156	1
6715.000	0.684	1157	1
6760.000	0.684	1158	1
6765.000	0.685	1159	1
6775.000	0.686	1160	1
6790.000	0.686	1161	1
6795.000	0.687	1162	1
6815.000	0.687	1163	1
6835.000	0.688	1164	1
6860.000	0.689	1165	1
6870.000	0.689	1166	1
6885.000	0.690	1167	1
6910.000	0.690	1168	1
6920.000	0.691	1169	1
6925.000	0.691	1170	1
6955.000	0.692	1171	1
6980.000	0.693	1172	1
6990.000	0.693	1173	1
7000.000	0.694	1174	1
7005.000	0.694	1175	1
7010.000	0.696	1177	2
7025.000	0.696	1178	1
7030.000	0.697	1179	1
7035.000	0.698	1181	2
7050.000	0.699	1183	2
7060.000	0.700	1184	1
7080.000	0.700	1185	1
7085.000	0.702	1187	2
7095.000	0.702	1188	1
7145.000	0.703	1189	1
7200.000	0.703	1190	1
7215.000	0.704	1191	1
7220.000	0.704	1192	1
7225.000	0.705	1193	1
7230.000	0.706	1194	1
7255.000	0.707	1196	2
7260.000	0.708	1198	2
7265.000	0.709	1199	1
7380.000	0.709	1200	1
7390.000	0.710	1201	1
7395.000	0.710	1202	1
7415.000	0.711	1203	1
7430.000	0.712	1204	1
7455.000	0.712	1205	1
7470.000	0.713	1206	1
7480.000	0.713	1207	1
7495.000	0.714	1208	1
7515.000	0.715	1209	1
7520.000	0.715	1210	1
7525.000	0.716	1211	1
7540.000	0.717	1213	2
7560.000	0.717	1214	1
7580.000	0.718	1215	1
7585.000	0.719	1216	1
7590.000	0.719	1217	1
7600.000	0.720	1219	2
7605.000	0.721	1220	1
7620.000	0.722	1221	1
7675.000	0.722	1222	1
7695.000	0.723	1223	1
7700.000	0.723	1224	1
7710.000	0.725	1226	2
7755.000	0.725	1227	1
7780.000	0.726	1229	2
7805.000	0.727	1230	1
7845.000	0.728	1231	1
7865.000	0.728	1232	1
7900.000	0.729	1233	1
7945.000	0.729	1234	1
7995.000	0.730	1236	2
8025.000	0.732	1238	2
8040.000	0.732	1239	1
8050.000	0.733	1240	1
8055.000	0.733	1241	1
8075.000	0.734	1242	1
8095.000	0.735	1243	1
8120.000	0.735	1244	1
8135.000	0.736	1245	1
8150.000	0.736	1246	1
8160.000	0.737	1247	1
8165.000	0.738	1248	1
8170.000	0.738	1249	1
8180.000	0.739	1250	1
8210.000	0.739	1251	1
8220.000	0.740	1252	1
8240.000	0.741	1253	1
8245.000	0.742	1255	2
8265.000	0.742	1256	1
8285.000	0.743	1257	1
8290.000	0.743	1258	1
8305.000	0.744	1259	1
8375.000	0.745	1260	1
8385.000	0.746	1262	2
8440.000	0.746	1263	1
8445.000	0.747	1264	1
8460.000	0.748	1265	1
8520.000	0.748	1266	1
8545.000	0.749	1268	2
8555.000	0.750	1269	1
8585.000	0.751	1270	1
8645.000	0.751	1271	1
8655.000	0.752	1272	1
8670.000	0.752	1273	1
8730.000	0.753	1274	1
8735.000	0.754	1275	1
8745.000	0.755	1277	2
8765.000	0.756	1279	2
8805.000	0.757	1280	1
8840.000	0.757	1281	1
8875.000	0.758	1282	1
8895.000	0.758	1283	1
8910.000	0.759	1284	1
8955.000	0.759	1285	1
8995.000	0.760	1286	1
9000.000	0.761	1288	2
9005.000	0.762	1289	1
9010.000	0.762	1290	1
9015.000	0.763	1291	1
9020.000	0.764	1292	1
9025.000	0.765	1295	3
9035.000	0.766	1296	1
9090.000	0.767	1297	1
9095.000	0.767	1298	1
9105.000	0.768	1299	1
9110.000	0.768	1300	1
9135.000	0.769	1301	1
9160.000	0.770	1302	1
9165.000	0.770	1303	1
9170.000	0.771	1304	1
9190.000	0.772	1306	2
9205.000	0.773	1308	2
9220.000	0.774	1309	1
9230.000	0.774	1310	1
9300.000	0.775	1311	1
9310.000	0.777	1314	3
9315.000	0.777	1315	1
9320.000	0.778	1316	1
9335.000	0.779	1318	2
9345.000	0.780	1319	1
9370.000	0.780	1320	1
9395.000	0.781	1321	1
9475.000	0.781	1322	1
9510.000	0.783	1324	2
9530.000	0.783	1325	1
9570.000	0.784	1326	1
9615.000	0.784	1327	1
9630.000	0.785	1328	1
9650.000	0.785	1329	1
9655.000	0.787	1331	2
9665.000	0.787	1332	1
9675.000	0.788	1333	1
9730.000	0.788	1334	1
9740.000	0.789	1335	1
9755.000	0.790	1336	1
9760.000	0.790	1337	1
9765.000	0.791	1338	1
9770.000	0.791	1339	1
9775.000	0.792	1340	1
9780.000	0.793	1341	1
9785.000	0.793	1342	1
9855.000	0.794	1343	1
9895.000	0.794	1344	1
9945.000	0.795	1345	1
9995.000	0.796	1346	1
10005.000	0.796	1347	1
10020.000	0.797	1348	1
10095.000	0.797	1349	1
10105.000	0.798	1350	1
10135.000	0.798	1351	1
10145.000	0.799	1352	1
10165.000	0.800	1353	1
10260.000	0.800	1354	1
10285.000	0.801	1355	1
10390.000	0.801	1356	1
10450.000	0.802	1357	1
10490.000	0.803	1358	1
10505.000	0.803	1359	1
10545.000	0.804	1360	1
10585.000	0.804	1361	1
10590.000	0.805	1362	1
10620.000	0.806	1364	2
10650.000	0.807	1365	1
10665.000	0.807	1366	1
10690.000	0.808	1367	1
10710.000	0.809	1368	1
10745.000	0.809	1369	1
10780.000	0.810	1370	1
10795.000	0.810	1371	1
10820.000	0.811	1372	1
10830.000	0.811	1373	1
10840.000	0.812	1374	1
10845.000	0.813	1375	1
10905.000	0.813	1376	1
10915.000	0.814	1377	1
10955.000	0.814	1378	1
10985.000	0.815	1379	1
11035.000	0.816	1380	1
11070.000	0.816	1381	1
11075.000	0.817	1382	1
11105.000	0.817	1383	1
11140.000	0.818	1384	1
11200.000	0.819	1386	2
11210.000	0.820	1387	1
11220.000	0.820	1388	1
11260.000	0.821	1389	1
11265.000	0.822	1390	1
11275.000	0.822	1391	1
11280.000	0.823	1392	1
11305.000	0.823	1393	1
11315.000	0.824	1394	1
11350.000	0.824	1395	1
11370.000	0.825	1396	1
11375.000	0.826	1397	1
11425.000	0.827	1399	2
11435.000	0.827	1400	1
11495.000	0.828	1401	1
11500.000	0.829	1402	1
11520.000	0.829	1403	1
11570.000	0.830	1404	1
11595.000	0.830	1405	1
11635.000	0.831	1406	1
11680.000	0.832	1407	1
11685.000	0.832	1408	1
11745.000	0.833	1409	1
11800.000	0.834	1411	2
11820.000	0.835	1412	1
11835.000	0.836	1414	2
11920.000	0.836	1415	1
11955.000	0.837	1416	1
11975.000	0.837	1417	1
11980.000	0.838	1418	1
11985.000	0.839	1419	1
12030.000	0.839	1420	1
12035.000	0.840	1421	1
12040.000	0.840	1422	1
12045.000	0.841	1423	1
12060.000	0.842	1424	1
12100.000	0.842	1425	1
12110.000	0.843	1426	1
12155.000	0.843	1427	1
12180.000	0.844	1428	1
12185.000	0.845	1429	1
12400.000	0.845	1430	1
12405.000	0.846	1431	1
12425.000	0.846	1432	1
12485.000	0.847	1433	1
12520.000	0.848	1434	1
12525.000	0.848	1435	1
12530.000	0.849	1436	1
12535.000	0.849	1437	1
12630.000	0.850	1438	1
12670.000	0.851	1440	2
12730.000	0.852	1441	1
12815.000	0.852	1442	1
12925.000	0.853	1443	1
12945.000	0.853	1444	1
12955.000	0.854	1445	1
12960.000	0.855	1446	1
13005.000	0.855	1447	1
13010.000	0.856	1448	1
13110.000	0.856	1449	1
13160.000	0.857	1450	1
13175.000	0.858	1451	1
13200.000	0.858	1452	1
13225.000	0.859	1453	1
13240.000	0.859	1454	1
13245.000	0.860	1455	1
13325.000	0.861	1456	1
13330.000	0.861	1457	1
13345.000	0.862	1458	1
13440.000	0.862	1459	1
13465.000	0.863	1460	1
13530.000	0.863	1461	1
13585.000	0.865	1463	2
13605.000	0.865	1464	1
13715.000	0.866	1465	1
13935.000	0.866	1466	1
14000.000	0.867	1467	1
14030.000	0.868	1468	1
14090.000	0.868	1469	1
14175.000	0.869	1470	1
14350.000	0.869	1471	1
14410.000	0.870	1472	1
14505.000	0.871	1473	1
14515.000	0.872	1475	2
14540.000	0.872	1476	1
14640.000	0.873	1477	1
14700.000	0.874	1478	1
14710.000	0.874	1479	1
14730.000	0.875	1480	1
14760.000	0.875	1481	1
14805.000	0.876	1482	1
14810.000	0.876	1483	1
14855.000	0.877	1484	1
14865.000	0.878	1485	1
14875.000	0.878	1486	1
14965.000	0.879	1487	1
15045.000	0.879	1488	1
15185.000	0.880	1489	1
15195.000	0.881	1490	1
15225.000	0.881	1491	1
15285.000	0.882	1492	1
15315.000	0.882	1493	1
15325.000	0.883	1494	1
15375.000	0.884	1495	1
15455.000	0.884	1496	1
15490.000	0.885	1497	1
15595.000	0.885	1498	1
15900.000	0.886	1499	1
16100.000	0.887	1500	1
16115.000	0.887	1501	1
16170.000	0.888	1502	1
16175.000	0.888	1503	1
16205.000	0.889	1504	1
16300.000	0.889	1505	1
16305.000	0.890	1506	1
16310.000	0.891	1507	1
16350.000	0.891	1508	1
16410.000	0.892	1509	1
16505.000	0.892	1510	1
16650.000	0.893	1511	1
16760.000	0.894	1512	1
16920.000	0.894	1513	1
17010.000	0.895	1514	1
17030.000	0.895	1515	1
17140.000	0.896	1516	1
17155.000	0.897	1517	1
17285.000	0.897	1518	1
17310.000	0.898	1519	1
17385.000	0.898	1520	1
17445.000	0.899	1521	1
17630.000	0.900	1522	1
17655.000	0.900	1523	1
17685.000	0.901	1524	1
17905.000	0.901	1525	1
17960.000	0.902	1526	1
18010.000	0.902	1527	1
18055.000	0.904	1530	3
18275.000	0.905	1531	1
18295.000	0.905	1532	1
18305.000	0.906	1533	1
18375.000	0.907	1534	1
18565.000	0.907	1535	1
18630.000	0.908	1536	1
18650.000	0.908	1537	1
18695.000	0.909	1538	1
18725.000	0.910	1539	1
18830.000	0.910	1540	1
18855.000	0.911	1541	1
19030.000	0.911	1542	1
19065.000	0.913	1544	2
19195.000	0.913	1545	1
19240.000	0.914	1546	1
19355.000	0.914	1547	1
19365.000	0.915	1548	1
19455.000	0.915	1549	1
19515.000	0.916	1550	1
19565.000	0.917	1552	2
19580.000	0.918	1553	1
19755.000	0.918	1554	1
19965.000	0.919	1555	1
20285.000	0.920	1556	1
20540.000	0.920	1557	1
20635.000	0.921	1558	1
20855.000	0.921	1559	1
21020.000	0.922	1560	1
21175.000	0.923	1561	1
21600.000	0.923	1562	1
21825.000	0.924	1563	1
21930.000	0.924	1564	1
21950.000	0.925	1565	1
21955.000	0.926	1566	1
22185.000	0.926	1567	1
22530.000	0.927	1568	1
22600.000	0.927	1569	1
22880.000	0.928	1570	1
23080.000	0.928	1571	1
23180.000	0.929	1572	1
23375.000	0.930	1573	1
23490.000	0.930	1574	1
23550.000	0.931	1575	1
23590.000	0.931	1576	1
23755.000	0.932	1577	1
23915.000	0.933	1579	2
24380.000	0.934	1580	1
24560.000	0.934	1581	1
24630.000	0.935	1582	1
24795.000	0.936	1583	1
24925.000	0.936	1584	1
25020.000	0.937	1585	1
25150.000	0.937	1586	1
25270.000	0.938	1587	1
25405.000	0.939	1588	1
25440.000	0.939	1589	1
25480.000	0.940	1590	1
25505.000	0.940	1591	1
25510.000	0.941	1592	1
25535.000	0.941	1593	1
25805.000	0.942	1594	1
26015.000	0.943	1595	1
26225.000	0.943	1596	1
26230.000	0.944	1597	1
26315.000	0.945	1599	2
26375.000	0.946	1600	1
26470.000	0.946	1601	1
26520.000	0.947	1602	1
26530.000	0.947	1603	1
26575.000	0.948	1604	1
26585.000	0.949	1605	1
26615.000	0.949	1606	1
26875.000	0.950	1607	1
26915.000	0.950	1608	1
27105.000	0.951	1609	1
27110.000	0.952	1610	1
27165.000	0.952	1611	1
27230.000	0.953	1612	1
27445.000	0.953	1613	1
27450.000	0.954	1614	1
27575.000	0.954	1615	1
27585.000	0.955	1616	1
27595.000	0.956	1617	1
27785.000	0.956	1618	1
27805.000	0.957	1619	1
28035.000	0.957	1620	1
28040.000	0.958	1621	1
28295.000	0.959	1622	1
28310.000	0.959	1623	1
28350.000	0.960	1624	1
28420.000	0.960	1625	1
28435.000	0.961	1626	1
28645.000	0.962	1627	1
28740.000	0.962	1628	1
28760.000	0.963	1629	1
28960.000	0.963	1630	1
29115.000	0.964	1631	1
29395.000	0.965	1632	1
29405.000	0.965	1633	1
29560.000	0.966	1634	1
29570.000	0.966	1635	1
30035.000	0.967	1636	1
30185.000	0.967	1637	1
30305.000	0.968	1638	1
30505.000	0.969	1639	1
30970.000	0.969	1640	1
31190.000	0.970	1641	1
31740.000	0.970	1642	1
32600.000	0.971	1643	1
33550.000	0.972	1644	1
34000.000	0.972	1645	1
34630.000	0.973	1646	1
34885.000	0.973	1647	1
34910.000	0.974	1648	1
34995.000	0.975	1649	1
35490.000	0.975	1650	1
35925.000	0.976	1651	1
36600.000	0.976	1652	1
37085.000	0.977	1653	1
37585.000	0.978	1654	1
37785.000	0.978	1655	1
37955.000	0.979	1656	1
38810.000	0.979	1657	1
39565.000	0.980	1658	1
39630.000	0.981	1660	2
40530.000	0.982	1661	1
40615.000	0.982	1662	1
40620.000	0.983	1663	1
41130.000	0.983	1664	1
42080.000	0.984	1665	1
42430.000	0.985	1666	1
43625.000	0.985	1667	1
45285.000	0.986	1668	1
46655.000	0.986	1669	1
47595.000	0.987	1670	1
48155.000	0.988	1671	1
49160.000	0.988	1672	1
49485.000	0.989	1673	1
49775.000	0.989	1674	1
50080.000	0.990	1675	1
52930.000	0.991	1676	1
54990.000	0.991	1677	1
55045.000	0.992	1678	1
55785.000	0.992	1679	1
55940.000	0.993	1680	1
58165.000	0.993	1681	1
58480.000	0.994	1682	1
73945.000	0.995	1683	1
74655.000	0.995	1684	1
83670.000	0.996	1685	1
86355.000	0.996	1686	1
93055.000	0.997	1687	1
111100.000	0.998	1688	1
111730.000	0.998	1689	1
113990.000	0.999	1690	1
128090.000	0.999	1691	1
1813325.000	1.000	1692	1
